#Temperature (K)	Pressure (MPa)	Quality (l+v)	Internal Energy (l+v, kJ/kg)	Enthalpy (l+v, kJ/kg)	Entropy (l+v, J/g*K)	Density (l, kg/m3)	Volume (l, m3/kg)	Internal Energy (l, kJ/kg)	Enthalpy (l, kJ/kg)	Entropy (l, J/g*K)	Cv (l, J/g*K)	Cp (l, J/g*K)	Sound Spd. (l, m/s)	Joule-Thomson (l, K/MPa)	Viscosity (l, uPa*s)	Therm. Cond. (l, W/m*K)	Density (v, kg/m3)	Volume (v, m3/kg)	Internal Energy (v, kJ/kg)	Enthalpy (v, kJ/kg)	Entropy (v, J/g*K)	Cv (v, J/g*K)	Cp (v, J/g*K)	Sound Spd. (v, m/s)	Joule-Thomson (v, K/MPa)	Viscosity (v, uPa*s)	Therm. Cond. (v, W/m*K)
640.00	20.265	0.19646	1894.3	1950.6	4.2075	481.53	0.0020767	1799.7	1841.8	4.0375	3.5815	25.942	400.66	1.9542	55.247	0.41493	177.15	0.0056451	2281.1	2395.5	4.9027	4.3061	52.586	379.64	5.3854	27.938	0.25001
641.00	20.509	0.19967	1903.3	1960.3	4.2216	473.01	0.0021141	1812.5	1855.9	4.0587	3.6477	29.607	388.55	2.0643	54.338	0.41553	183.90	0.0054379	2267.1	2378.6	4.8742	4.3728	61.335	375.08	5.2606	28.405	0.26761
642.00	20.756	0.20268	1912.5	1970.1	4.2359	463.67	0.0021567	1826.4	1871.1	4.0817	3.7256	34.929	375.90	2.1894	53.351	0.41800	191.53	0.0052211	2251.3	2359.7	4.8427	4.4520	73.787	369.90	5.1250	28.941	0.28965
643.00	21.006	0.20511	1921.9	1980.3	4.2506	453.14	0.0022068	1841.6	1888.0	4.1071	3.8220	43.427	362.10	2.3364	52.248	0.42375	200.38	0.0049906	2233.2	2338.1	4.8070	4.5496	92.842	363.84	4.9748	29.573	0.31864
644.00	21.259	0.20595	1931.8	1990.8	4.2659	440.73	0.0022689	1859.1	1907.4	4.1363	3.9543	58.910	346.01	2.5175	50.962	0.43573	210.99	0.0047395	2211.8	2312.6	4.7655	4.6763	125.31	356.41	4.8041	30.345	0.35957
645.00	21.515	0.20218	1942.1	2001.9	4.2819	425.05	0.0023527	1880.5	1931.1	4.1722	4.1673	93.350	325.47	2.7545	49.357	0.46136	224.45	0.0044553	2185.2	2281.0	4.7147	4.8543	191.32	346.60	4.6025	31.348	0.42459
646.00	21.775	0.18215	1953.0	2013.5	4.2988	402.96	0.0024816	1909.5	1963.5	4.2214	4.5943	204.58	297.13	3.0844	48.022	0.52804	243.46	0.0041074	2148.6	2238.1	4.6465	5.1457	385.23	331.61	4.3487	33.248	0.55611
647.00	22.039	undefined	1964.5	2025.7	4.3166	360.00	0.0027778	1964.5	2025.7	4.3166	6.0373	2665.0	254.95	3.5617	46.723	1.1435	360.00	0.0027778	1964.5	2025.7	4.3166	6.0373	2665.0	254.95	3.5617	46.723	1.1435
648.00	22.322	undefined	1970.0	2032.0	4.3251	360.00	0.0027778	1970.0	2032.0	4.3251	5.1944	538.37	282.23	3.4543	44.784	0.66638	360.00	0.0027778	1970.0	2032.0	4.3251	5.1944	538.37	282.23	3.4543	44.784	0.66638
649.00	22.611	undefined	1975.0	2037.8	4.3328	360.00	0.0027778	1975.0	2037.8	4.3328	4.8266	291.06	298.21	3.3777	44.070	0.55906	360.00	0.0027778	1975.0	2037.8	4.3328	4.8266	291.06	298.21	3.3777	44.070	0.55906
650.00	22.903	undefined	1979.7	2043.3	4.3400	360.00	0.0027778	1979.7	2043.3	4.3400	4.5505	197.07	311.87	3.3131	43.632	0.50529	360.00	0.0027778	1979.7	2043.3	4.3400	4.5505	197.07	311.87	3.3131	43.632	0.50529
651.00	23.198	undefined	1984.1	2048.5	4.3468	360.00	0.0027778	1984.1	2048.5	4.3468	4.3353	148.27	323.75	3.2571	43.324	0.47167	360.00	0.0027778	1984.1	2048.5	4.3468	4.3353	148.27	323.75	3.2571	43.324	0.47167
652.00	23.495	undefined	1988.4	2053.6	4.3533	360.00	0.0027778	1988.4	2053.6	4.3533	4.1664	118.69	334.06	3.2078	43.188	0.44816	360.00	0.0027778	1988.4	2053.6	4.3533	4.1664	118.69	334.06	3.2078	43.188	0.44816
653.00	23.795	undefined	1992.4	2058.5	4.3596	360.00	0.0027778	1992.4	2058.5	4.3596	4.0335	98.971	342.98	3.1635	43.235	0.43057	360.00	0.0027778	1992.4	2058.5	4.3596	4.0335	98.971	342.98	3.1635	43.235	0.43057
654.00	24.096	undefined	1996.4	2063.4	4.3657	360.00	0.0027778	1996.4	2063.4	4.3657	3.9292	84.962	350.71	3.1231	43.281	0.41679	360.00	0.0027778	1996.4	2063.4	4.3657	3.9292	84.962	350.71	3.1231	43.281	0.41679
655.00	24.399	undefined	2000.3	2068.1	4.3716	360.00	0.0027778	2000.3	2068.1	4.3716	3.8473	74.534	357.40	3.0858	43.328	0.40564	360.00	0.0027778	2000.3	2068.1	4.3716	3.8473	74.534	357.40	3.0858	43.328	0.40564
656.00	24.704	undefined	2004.1	2072.7	4.3775	360.00	0.0027778	2004.1	2072.7	4.3775	3.7830	66.492	363.22	3.0509	43.374	0.39638	360.00	0.0027778	2004.1	2072.7	4.3775	3.7830	66.492	363.22	3.0509	43.374	0.39638
657.00	25.009	undefined	2007.9	2077.4	4.3832	360.00	0.0027778	2007.9	2077.4	4.3832	3.7325	60.112	368.35	3.0179	43.421	0.38855	360.00	0.0027778	2007.9	2077.4	4.3832	3.7325	60.112	368.35	3.0179	43.421	0.38855
658.00	25.316	undefined	2011.6	2081.9	4.3888	360.00	0.0027778	2011.6	2081.9	4.3888	3.6924	54.935	372.91	2.9864	43.468	0.38181	360.00	0.0027778	2011.6	2081.9	4.3888	3.6924	54.935	372.91	2.9864	43.468	0.38181
659.00	25.623	undefined	2015.3	2086.4	4.3944	360.00	0.0027778	2015.3	2086.4	4.3944	3.6603	50.653	377.03	2.9562	43.514	0.37594	360.00	0.0027778	2015.3	2086.4	4.3944	3.6603	50.653	377.03	2.9562	43.514	0.37594
660.00	25.932	undefined	2018.9	2091.0	4.3999	360.00	0.0027778	2018.9	2091.0	4.3999	3.6341	47.053	380.81	2.9271	43.561	0.37077	360.00	0.0027778	2018.9	2091.0	4.3999	3.6341	47.053	380.81	2.9271	43.561	0.37077
661.00	26.241	undefined	2022.5	2095.4	4.4054	360.00	0.0027778	2022.5	2095.4	4.4054	3.6121	43.985	384.34	2.8989	43.608	0.36617	360.00	0.0027778	2022.5	2095.4	4.4054	3.6121	43.985	384.34	2.8989	43.608	0.36617
662.00	26.552	undefined	2026.1	2099.9	4.4109	360.00	0.0027778	2026.1	2099.9	4.4109	3.5931	41.338	387.69	2.8715	43.654	0.36205	360.00	0.0027778	2026.1	2099.9	4.4109	3.5931	41.338	387.69	2.8715	43.654	0.36205
663.00	26.863	undefined	2029.7	2104.3	4.4163	360.00	0.0027778	2029.7	2104.3	4.4163	3.5760	39.029	390.92	2.8449	43.701	0.35832	360.00	0.0027778	2029.7	2104.3	4.4163	3.5760	39.029	390.92	2.8449	43.701	0.35832
664.00	27.175	undefined	2033.3	2108.8	4.4217	360.00	0.0027778	2033.3	2108.8	4.4217	3.5600	36.995	394.06	2.8191	43.748	0.35493	360.00	0.0027778	2033.3	2108.8	4.4217	3.5600	36.995	394.06	2.8191	43.748	0.35493
665.00	27.487	undefined	2036.8	2113.2	4.4270	360.00	0.0027778	2036.8	2113.2	4.4270	3.5446	35.188	397.15	2.7939	43.795	0.35182	360.00	0.0027778	2036.8	2113.2	4.4270	3.5446	35.188	397.15	2.7939	43.795	0.35182
666.00	27.801	undefined	2040.4	2117.6	4.4323	360.00	0.0027778	2040.4	2117.6	4.4323	3.5293	33.571	400.21	2.7695	43.841	0.34895	360.00	0.0027778	2040.4	2117.6	4.4323	3.5293	33.571	400.21	2.7695	43.841	0.34895
667.00	28.115	undefined	2043.9	2122.0	4.4376	360.00	0.0027778	2043.9	2122.0	4.4376	3.5138	32.112	403.26	2.7457	43.888	0.34628	360.00	0.0027778	2043.9	2122.0	4.4376	3.5138	32.112	403.26	2.7457	43.888	0.34628
668.00	28.430	undefined	2047.4	2126.4	4.4429	360.00	0.0027778	2047.4	2126.4	4.4429	3.4980	30.788	406.30	2.7226	43.935	0.34380	360.00	0.0027778	2047.4	2126.4	4.4429	3.4980	30.788	406.30	2.7226	43.935	0.34380
669.00	28.745	undefined	2050.9	2130.8	4.4481	360.00	0.0027778	2050.9	2130.8	4.4481	3.4818	29.580	409.33	2.7001	43.982	0.34147	360.00	0.0027778	2050.9	2130.8	4.4481	3.4818	29.580	409.33	2.7001	43.982	0.34147
670.00	29.061	undefined	2054.4	2135.1	4.4533	360.00	0.0027778	2054.4	2135.1	4.4533	3.4652	28.472	412.37	2.6783	44.029	0.33928	360.00	0.0027778	2054.4	2135.1	4.4533	3.4652	28.472	412.37	2.6783	44.029	0.33928
671.00	29.378	undefined	2057.8	2139.4	4.4584	360.00	0.0027778	2057.8	2139.4	4.4584	3.4483	27.451	415.40	2.6571	44.076	0.33720	360.00	0.0027778	2057.8	2139.4	4.4584	3.4483	27.451	415.40	2.6571	44.076	0.33720
672.00	29.695	undefined	2061.3	2143.8	4.4635	360.00	0.0027778	2061.3	2143.8	4.4635	3.4310	26.505	418.42	2.6365	44.123	0.33523	360.00	0.0027778	2061.3	2143.8	4.4635	3.4310	26.505	418.42	2.6365	44.123	0.33523
673.00	30.013	undefined	2064.7	2148.1	4.4686	360.00	0.0027778	2064.7	2148.1	4.4686	3.4135	25.627	421.42	2.6165	44.170	0.33335	360.00	0.0027778	2064.7	2148.1	4.4686	3.4135	25.627	421.42	2.6165	44.170	0.33335
674.00	30.331	undefined	2068.1	2152.4	4.4737	360.00	0.0027778	2068.1	2152.4	4.4737	3.3959	24.809	424.40	2.5970	44.217	0.33155	360.00	0.0027778	2068.1	2152.4	4.4737	3.3959	24.809	424.40	2.5970	44.217	0.33155
675.00	30.650	undefined	2071.5	2156.6	4.4787	360.00	0.0027778	2071.5	2156.6	4.4787	3.3783	24.045	427.36	2.5781	44.264	0.32983	360.00	0.0027778	2071.5	2156.6	4.4787	3.3783	24.045	427.36	2.5781	44.264	0.32983
676.00	30.970	undefined	2074.9	2160.9	4.4837	360.00	0.0027778	2074.9	2160.9	4.4837	3.3609	23.328	430.28	2.5596	44.311	0.32817	360.00	0.0027778	2074.9	2160.9	4.4837	3.3609	23.328	430.28	2.5596	44.311	0.32817
677.00	31.289	undefined	2078.2	2165.1	4.4887	360.00	0.0027778	2078.2	2165.1	4.4887	3.3437	22.656	433.16	2.5415	44.358	0.32658	360.00	0.0027778	2078.2	2165.1	4.4887	3.3437	22.656	433.16	2.5415	44.358	0.32658
678.00	31.609	undefined	2081.5	2169.3	4.4936	360.00	0.0027778	2081.5	2169.3	4.4936	3.3268	22.023	435.99	2.5239	44.405	0.32504	360.00	0.0027778	2081.5	2169.3	4.4936	3.3268	22.023	435.99	2.5239	44.405	0.32504
679.00	31.930	undefined	2084.9	2173.6	4.4985	360.00	0.0027778	2084.9	2173.6	4.4985	3.3104	21.426	438.78	2.5067	44.452	0.32355	360.00	0.0027778	2084.9	2173.6	4.4985	3.3104	21.426	438.78	2.5067	44.452	0.32355
680.00	32.251	undefined	2088.2	2177.8	4.5033	360.00	0.0027778	2088.2	2177.8	4.5033	3.2944	20.864	441.52	2.4898	44.500	0.32212	360.00	0.0027778	2088.2	2177.8	4.5033	3.2944	20.864	441.52	2.4898	44.500	0.32212
681.00	32.572	undefined	2091.5	2181.9	4.5082	360.00	0.0027778	2091.5	2181.9	4.5082	3.2790	20.332	444.21	2.4732	44.547	0.32073	360.00	0.0027778	2091.5	2181.9	4.5082	3.2790	20.332	444.21	2.4732	44.547	0.32073
682.00	32.894	undefined	2094.7	2186.1	4.5130	360.00	0.0027778	2094.7	2186.1	4.5130	3.2642	19.828	446.85	2.4570	44.594	0.31938	360.00	0.0027778	2094.7	2186.1	4.5130	3.2642	19.828	446.85	2.4570	44.594	0.31938
683.00	33.215	undefined	2098.0	2190.2	4.5177	360.00	0.0027778	2098.0	2190.2	4.5177	3.2500	19.352	449.43	2.4410	44.641	0.31808	360.00	0.0027778	2098.0	2190.2	4.5177	3.2500	19.352	449.43	2.4410	44.641	0.31808
684.00	33.537	undefined	2101.2	2194.4	4.5225	360.00	0.0027778	2101.2	2194.4	4.5225	3.2364	18.900	451.97	2.4252	44.688	0.31682	360.00	0.0027778	2101.2	2194.4	4.5225	3.2364	18.900	451.97	2.4252	44.688	0.31682
685.00	33.860	undefined	2104.5	2198.5	4.5272	360.00	0.0027778	2104.5	2198.5	4.5272	3.2234	18.471	454.46	2.4097	44.736	0.31560	360.00	0.0027778	2104.5	2198.5	4.5272	3.2234	18.471	454.46	2.4097	44.736	0.31560
686.00	34.182	undefined	2107.7	2202.6	4.5319	360.00	0.0027778	2107.7	2202.6	4.5319	3.2110	18.063	456.90	2.3943	44.783	0.31442	360.00	0.0027778	2107.7	2202.6	4.5319	3.2110	18.063	456.90	2.3943	44.783	0.31442
687.00	34.505	undefined	2110.9	2206.7	4.5366	360.00	0.0027778	2110.9	2206.7	4.5366	3.1991	17.676	459.30	2.3792	44.830	0.31327	360.00	0.0027778	2110.9	2206.7	4.5366	3.1991	17.676	459.30	2.3792	44.830	0.31327
688.00	34.828	undefined	2114.1	2210.8	4.5412	360.00	0.0027778	2114.1	2210.8	4.5412	3.1877	17.307	461.67	2.3642	44.878	0.31216	360.00	0.0027778	2114.1	2210.8	4.5412	3.1877	17.307	461.67	2.3642	44.878	0.31216
689.00	35.151	undefined	2117.3	2214.9	4.5458	360.00	0.0027778	2117.3	2214.9	4.5458	3.1769	16.956	464.00	2.3495	44.925	0.31108	360.00	0.0027778	2117.3	2214.9	4.5458	3.1769	16.956	464.00	2.3495	44.925	0.31108
690.00	35.475	undefined	2120.4	2219.0	4.5504	360.00	0.0027778	2120.4	2219.0	4.5504	3.1664	16.621	466.30	2.3348	44.972	0.31004	360.00	0.0027778	2120.4	2219.0	4.5504	3.1664	16.621	466.30	2.3348	44.972	0.31004
691.00	35.799	undefined	2123.6	2223.0	4.5550	360.00	0.0027778	2123.6	2223.0	4.5550	3.1564	16.302	468.58	2.3204	45.020	0.30903	360.00	0.0027778	2123.6	2223.0	4.5550	3.1564	16.302	468.58	2.3204	45.020	0.30903
692.00	36.122	undefined	2126.7	2227.1	4.5596	360.00	0.0027778	2126.7	2227.1	4.5596	3.1467	15.998	470.83	2.3061	45.067	0.30805	360.00	0.0027778	2126.7	2227.1	4.5596	3.1467	15.998	470.83	2.3061	45.067	0.30805
693.00	36.446	undefined	2129.9	2231.1	4.5641	360.00	0.0027778	2129.9	2231.1	4.5641	3.1373	15.706	473.07	2.2919	45.114	0.30710	360.00	0.0027778	2129.9	2231.1	4.5641	3.1373	15.706	473.07	2.2919	45.114	0.30710
694.00	36.771	undefined	2133.0	2235.2	4.5686	360.00	0.0027778	2133.0	2235.2	4.5686	3.1282	15.428	475.28	2.2779	45.162	0.30617	360.00	0.0027778	2133.0	2235.2	4.5686	3.1282	15.428	475.28	2.2779	45.162	0.30617
695.00	37.095	undefined	2136.1	2239.2	4.5731	360.00	0.0027778	2136.1	2239.2	4.5731	3.1193	15.161	477.49	2.2640	45.209	0.30527	360.00	0.0027778	2136.1	2239.2	4.5731	3.1193	15.161	477.49	2.2640	45.209	0.30527
696.00	37.420	undefined	2139.2	2243.2	4.5776	360.00	0.0027778	2139.2	2243.2	4.5776	3.1106	14.906	479.68	2.2503	45.256	0.30440	360.00	0.0027778	2139.2	2243.2	4.5776	3.1106	14.906	479.68	2.2503	45.256	0.30440
697.00	37.745	undefined	2142.4	2247.2	4.5820	360.00	0.0027778	2142.4	2247.2	4.5820	3.1021	14.661	481.86	2.2368	45.304	0.30355	360.00	0.0027778	2142.4	2247.2	4.5820	3.1021	14.661	481.86	2.2368	45.304	0.30355
698.00	38.070	undefined	2145.5	2251.2	4.5865	360.00	0.0027778	2145.5	2251.2	4.5865	3.0938	14.426	484.04	2.2234	45.351	0.30273	360.00	0.0027778	2145.5	2251.2	4.5865	3.0938	14.426	484.04	2.2234	45.351	0.30273
699.00	38.395	undefined	2148.5	2255.2	4.5909	360.00	0.0027778	2148.5	2255.2	4.5909	3.0856	14.200	486.21	2.2101	45.399	0.30193	360.00	0.0027778	2148.5	2255.2	4.5909	3.0856	14.200	486.21	2.2101	45.399	0.30193
700.00	38.720	undefined	2151.6	2259.2	4.5953	360.00	0.0027778	2151.6	2259.2	4.5953	3.0774	13.982	488.37	2.1970	45.446	0.30115	360.00	0.0027778	2151.6	2259.2	4.5953	3.0774	13.982	488.37	2.1970	45.446	0.30115
701.00	39.046	undefined	2154.7	2263.2	4.5997	360.00	0.0027778	2154.7	2263.2	4.5997	3.0694	13.773	490.53	2.1840	45.494	0.30039	360.00	0.0027778	2154.7	2263.2	4.5997	3.0694	13.773	490.53	2.1840	45.494	0.30039
702.00	39.372	undefined	2157.8	2267.1	4.6041	360.00	0.0027778	2157.8	2267.1	4.6041	3.0615	13.572	492.68	2.1712	45.541	0.29965	360.00	0.0027778	2157.8	2267.1	4.6041	3.0615	13.572	492.68	2.1712	45.541	0.29965
703.00	39.698	undefined	2160.8	2271.1	4.6084	360.00	0.0027778	2160.8	2271.1	4.6084	3.0536	13.378	494.82	2.1586	45.588	0.29892	360.00	0.0027778	2160.8	2271.1	4.6084	3.0536	13.378	494.82	2.1586	45.588	0.29892
704.00	40.024	undefined	2163.9	2275.0	4.6128	360.00	0.0027778	2163.9	2275.0	4.6128	3.0458	13.191	496.96	2.1461	45.636	0.29821	360.00	0.0027778	2163.9	2275.0	4.6128	3.0458	13.191	496.96	2.1461	45.636	0.29821
705.00	40.351	undefined	2166.9	2279.0	4.6171	360.00	0.0027778	2166.9	2279.0	4.6171	3.0381	13.010	499.09	2.1337	45.683	0.29752	360.00	0.0027778	2166.9	2279.0	4.6171	3.0381	13.010	499.09	2.1337	45.683	0.29752
706.00	40.677	undefined	2169.9	2282.9	4.6214	360.00	0.0027778	2169.9	2282.9	4.6214	3.0305	12.836	501.22	2.1215	45.731	0.29685	360.00	0.0027778	2169.9	2282.9	4.6214	3.0305	12.836	501.22	2.1215	45.731	0.29685
707.00	41.004	undefined	2173.0	2286.9	4.6257	360.00	0.0027778	2173.0	2286.9	4.6257	3.0229	12.667	503.34	2.1095	45.778	0.29619	360.00	0.0027778	2173.0	2286.9	4.6257	3.0229	12.667	503.34	2.1095	45.778	0.29619
708.00	41.331	undefined	2176.0	2290.8	4.6299	360.00	0.0027778	2176.0	2290.8	4.6299	3.0155	12.504	505.45	2.0975	45.826	0.29554	360.00	0.0027778	2176.0	2290.8	4.6299	3.0155	12.504	505.45	2.0975	45.826	0.29554
709.00	41.658	undefined	2179.0	2294.7	4.6342	360.00	0.0027778	2179.0	2294.7	4.6342	3.0081	12.346	507.55	2.0858	45.873	0.29491	360.00	0.0027778	2179.0	2294.7	4.6342	3.0081	12.346	507.55	2.0858	45.873	0.29491
710.00	41.986	undefined	2182.0	2298.6	4.6384	360.00	0.0027778	2182.0	2298.6	4.6384	3.0008	12.193	509.65	2.0741	45.921	0.29429	360.00	0.0027778	2182.0	2298.6	4.6384	3.0008	12.193	509.65	2.0741	45.921	0.29429
711.00	42.313	undefined	2185.0	2302.5	4.6426	360.00	0.0027778	2185.0	2302.5	4.6426	2.9936	12.044	511.73	2.0626	45.968	0.29368	360.00	0.0027778	2185.0	2302.5	4.6426	2.9936	12.044	511.73	2.0626	45.968	0.29368
712.00	42.641	undefined	2188.0	2306.4	4.6468	360.00	0.0027778	2188.0	2306.4	4.6468	2.9865	11.901	513.80	2.0512	46.016	0.29308	360.00	0.0027778	2188.0	2306.4	4.6468	2.9865	11.901	513.80	2.0512	46.016	0.29308
713.00	42.969	undefined	2191.0	2310.3	4.6510	360.00	0.0027778	2191.0	2310.3	4.6510	2.9795	11.761	515.86	2.0400	46.063	0.29249	360.00	0.0027778	2191.0	2310.3	4.6510	2.9795	11.761	515.86	2.0400	46.063	0.29249
714.00	43.297	undefined	2194.0	2314.2	4.6552	360.00	0.0027778	2194.0	2314.2	4.6552	2.9725	11.626	517.91	2.0289	46.111	0.29192	360.00	0.0027778	2194.0	2314.2	4.6552	2.9725	11.626	517.91	2.0289	46.111	0.29192
715.00	43.625	undefined	2196.9	2318.1	4.6594	360.00	0.0027778	2196.9	2318.1	4.6594	2.9657	11.494	519.95	2.0179	46.158	0.29135	360.00	0.0027778	2196.9	2318.1	4.6594	2.9657	11.494	519.95	2.0179	46.158	0.29135
716.00	43.954	undefined	2199.9	2322.0	4.6635	360.00	0.0027778	2199.9	2322.0	4.6635	2.9590	11.367	521.98	2.0070	46.206	0.29080	360.00	0.0027778	2199.9	2322.0	4.6635	2.9590	11.367	521.98	2.0070	46.206	0.29080
717.00	44.283	undefined	2202.8	2325.8	4.6676	360.00	0.0027778	2202.8	2325.8	4.6676	2.9525	11.243	523.99	1.9962	46.254	0.29025	360.00	0.0027778	2202.8	2325.8	4.6676	2.9525	11.243	523.99	1.9962	46.254	0.29025
718.00	44.611	undefined	2205.8	2329.7	4.6717	360.00	0.0027778	2205.8	2329.7	4.6717	2.9460	11.122	525.99	1.9856	46.301	0.28971	360.00	0.0027778	2205.8	2329.7	4.6717	2.9460	11.122	525.99	1.9856	46.301	0.28971
719.00	44.940	undefined	2208.7	2333.6	4.6758	360.00	0.0027778	2208.7	2333.6	4.6758	2.9396	11.005	527.98	1.9751	46.349	0.28919	360.00	0.0027778	2208.7	2333.6	4.6758	2.9396	11.005	527.98	1.9751	46.349	0.28919
720.00	45.269	undefined	2211.7	2337.4	4.6799	360.00	0.0027778	2211.7	2337.4	4.6799	2.9334	10.891	529.96	1.9647	46.396	0.28867	360.00	0.0027778	2211.7	2337.4	4.6799	2.9334	10.891	529.96	1.9647	46.396	0.28867
721.00	45.599	undefined	2214.6	2341.3	4.6840	360.00	0.0027778	2214.6	2341.3	4.6840	2.9272	10.780	531.92	1.9543	46.444	0.28816	360.00	0.0027778	2214.6	2341.3	4.6840	2.9272	10.780	531.92	1.9543	46.444	0.28816
722.00	45.928	undefined	2217.5	2345.1	4.6880	360.00	0.0027778	2217.5	2345.1	4.6880	2.9212	10.671	533.87	1.9441	46.491	0.28765	360.00	0.0027778	2217.5	2345.1	4.6880	2.9212	10.671	533.87	1.9441	46.491	0.28765
723.00	46.258	undefined	2220.4	2348.9	4.6921	360.00	0.0027778	2220.4	2348.9	4.6921	2.9153	10.566	535.80	1.9341	46.539	0.28716	360.00	0.0027778	2220.4	2348.9	4.6921	2.9153	10.566	535.80	1.9341	46.539	0.28716
724.00	46.587	undefined	2223.4	2352.8	4.6961	360.00	0.0027778	2223.4	2352.8	4.6961	2.9094	10.463	537.73	1.9241	46.586	0.28667	360.00	0.0027778	2223.4	2352.8	4.6961	2.9094	10.463	537.73	1.9241	46.586	0.28667
725.00	46.917	undefined	2226.3	2356.6	4.7001	360.00	0.0027778	2226.3	2356.6	4.7001	2.9037	10.363	539.64	1.9142	46.634	0.28619	360.00	0.0027778	2226.3	2356.6	4.7001	2.9037	10.363	539.64	1.9142	46.634	0.28619
726.00	47.247	undefined	2229.2	2360.4	4.7041	360.00	0.0027778	2229.2	2360.4	4.7041	2.8981	10.266	541.54	1.9044	46.681	0.28572	360.00	0.0027778	2229.2	2360.4	4.7041	2.8981	10.266	541.54	1.9044	46.681	0.28572
727.00	47.577	undefined	2232.1	2364.2	4.7081	360.00	0.0027778	2232.1	2364.2	4.7081	2.8926	10.171	543.42	1.8947	46.729	0.28525	360.00	0.0027778	2232.1	2364.2	4.7081	2.8926	10.171	543.42	1.8947	46.729	0.28525
728.00	47.907	undefined	2234.9	2368.0	4.7121	360.00	0.0027778	2234.9	2368.0	4.7121	2.8872	10.078	545.30	1.8851	46.776	0.28479	360.00	0.0027778	2234.9	2368.0	4.7121	2.8872	10.078	545.30	1.8851	46.776	0.28479
729.00	48.237	undefined	2237.8	2371.8	4.7160	360.00	0.0027778	2237.8	2371.8	4.7160	2.8818	9.9874	547.16	1.8756	46.824	0.28434	360.00	0.0027778	2237.8	2371.8	4.7160	2.8818	9.9874	547.16	1.8756	46.824	0.28434
730.00	48.568	undefined	2240.7	2375.6	4.7200	360.00	0.0027778	2240.7	2375.6	4.7200	2.8766	9.8989	549.01	1.8662	46.871	0.28390	360.00	0.0027778	2240.7	2375.6	4.7200	2.8766	9.8989	549.01	1.8662	46.871	0.28390
731.00	48.898	undefined	2243.6	2379.4	4.7239	360.00	0.0027778	2243.6	2379.4	4.7239	2.8714	9.8126	550.85	1.8568	46.919	0.28346	360.00	0.0027778	2243.6	2379.4	4.7239	2.8714	9.8126	550.85	1.8568	46.919	0.28346
732.00	49.229	undefined	2246.5	2383.2	4.7278	360.00	0.0027778	2246.5	2383.2	4.7278	2.8663	9.7283	552.68	1.8476	46.966	0.28303	360.00	0.0027778	2246.5	2383.2	4.7278	2.8663	9.7283	552.68	1.8476	46.966	0.28303
733.00	49.560	undefined	2249.3	2387.0	4.7317	360.00	0.0027778	2249.3	2387.0	4.7317	2.8613	9.6458	554.50	1.8385	47.014	0.28260	360.00	0.0027778	2249.3	2387.0	4.7317	2.8613	9.6458	554.50	1.8385	47.014	0.28260
734.00	49.890	undefined	2252.2	2390.8	4.7356	360.00	0.0027778	2252.2	2390.8	4.7356	2.8564	9.5653	556.30	1.8294	47.061	0.28218	360.00	0.0027778	2252.2	2390.8	4.7356	2.8564	9.5653	556.30	1.8294	47.061	0.28218
735.00	50.221	undefined	2255.0	2394.5	4.7395	360.00	0.0027778	2255.0	2394.5	4.7395	2.8516	9.4866	558.10	1.8204	47.109	0.28177	360.00	0.0027778	2255.0	2394.5	4.7395	2.8516	9.4866	558.10	1.8204	47.109	0.28177
736.00	50.552	undefined	2257.9	2398.3	4.7434	360.00	0.0027778	2257.9	2398.3	4.7434	2.8468	9.4096	559.89	1.8116	47.156	0.28136	360.00	0.0027778	2257.9	2398.3	4.7434	2.8468	9.4096	559.89	1.8116	47.156	0.28136
737.00	50.883	undefined	2260.7	2402.1	4.7472	360.00	0.0027778	2260.7	2402.1	4.7472	2.8421	9.3343	561.66	1.8028	47.204	0.28096	360.00	0.0027778	2260.7	2402.1	4.7472	2.8421	9.3343	561.66	1.8028	47.204	0.28096
738.00	51.215	undefined	2263.6	2405.8	4.7511	360.00	0.0027778	2263.6	2405.8	4.7511	2.8374	9.2606	563.43	1.7940	47.251	0.28057	360.00	0.0027778	2263.6	2405.8	4.7511	2.8374	9.2606	563.43	1.7940	47.251	0.28057
739.00	51.546	undefined	2266.4	2409.6	4.7549	360.00	0.0027778	2266.4	2409.6	4.7549	2.8329	9.1885	565.19	1.7854	47.299	0.28018	360.00	0.0027778	2266.4	2409.6	4.7549	2.8329	9.1885	565.19	1.7854	47.299	0.28018
740.00	51.877	undefined	2269.2	2413.3	4.7588	360.00	0.0027778	2269.2	2413.3	4.7588	2.8284	9.1179	566.94	1.7768	47.346	0.27980	360.00	0.0027778	2269.2	2413.3	4.7588	2.8284	9.1179	566.94	1.7768	47.346	0.27980
741.00	52.209	undefined	2272.1	2417.1	4.7626	360.00	0.0027778	2272.1	2417.1	4.7626	2.8239	9.0488	568.68	1.7683	47.394	0.27942	360.00	0.0027778	2272.1	2417.1	4.7626	2.8239	9.0488	568.68	1.7683	47.394	0.27942
742.00	52.540	undefined	2274.9	2420.8	4.7664	360.00	0.0027778	2274.9	2420.8	4.7664	2.8195	8.9811	570.41	1.7599	47.441	0.27905	360.00	0.0027778	2274.9	2420.8	4.7664	2.8195	8.9811	570.41	1.7599	47.441	0.27905
743.00	52.872	undefined	2277.7	2424.6	4.7702	360.00	0.0027778	2277.7	2424.6	4.7702	2.8152	8.9148	572.13	1.7516	47.488	0.27868	360.00	0.0027778	2277.7	2424.6	4.7702	2.8152	8.9148	572.13	1.7516	47.488	0.27868
744.00	53.204	undefined	2280.5	2428.3	4.7740	360.00	0.0027778	2280.5	2428.3	4.7740	2.8109	8.8498	573.85	1.7433	47.536	0.27832	360.00	0.0027778	2280.5	2428.3	4.7740	2.8109	8.8498	573.85	1.7433	47.536	0.27832
745.00	53.535	undefined	2283.3	2432.0	4.7777	360.00	0.0027778	2283.3	2432.0	4.7777	2.8066	8.7861	575.56	1.7351	47.583	0.27796	360.00	0.0027778	2283.3	2432.0	4.7777	2.8066	8.7861	575.56	1.7351	47.583	0.27796
746.00	53.867	undefined	2286.1	2435.8	4.7815	360.00	0.0027778	2286.1	2435.8	4.7815	2.8024	8.7237	577.25	1.7270	47.631	0.27761	360.00	0.0027778	2286.1	2435.8	4.7815	2.8024	8.7237	577.25	1.7270	47.631	0.27761
747.00	54.199	undefined	2288.9	2439.5	4.7853	360.00	0.0027778	2288.9	2439.5	4.7853	2.7983	8.6625	578.94	1.7190	47.678	0.27727	360.00	0.0027778	2288.9	2439.5	4.7853	2.7983	8.6625	578.94	1.7190	47.678	0.27727
748.00	54.531	undefined	2291.7	2443.2	4.7890	360.00	0.0027778	2291.7	2443.2	4.7890	2.7942	8.6025	580.63	1.7110	47.725	0.27693	360.00	0.0027778	2291.7	2443.2	4.7890	2.7942	8.6025	580.63	1.7110	47.725	0.27693
749.00	54.863	undefined	2294.5	2446.9	4.7927	360.00	0.0027778	2294.5	2446.9	4.7927	2.7901	8.5436	582.30	1.7031	47.773	0.27659	360.00	0.0027778	2294.5	2446.9	4.7927	2.7901	8.5436	582.30	1.7031	47.773	0.27659
750.00	55.195	undefined	2297.3	2450.6	4.7964	360.00	0.0027778	2297.3	2450.6	4.7964	2.7861	8.4858	583.97	1.6953	47.820	0.27626	360.00	0.0027778	2297.3	2450.6	4.7964	2.7861	8.4858	583.97	1.6953	47.820	0.27626